% Ozone absorption coefficient, 1/cm
% nm, 1/cm
380, 0.0000e+000 
 381, 2.6062e-005 
 382, 5.2123e-005 
 383, 7.8184e-005 
 384, 1.0425e-004 
 385, 1.3031e-004 
 386, 1.5637e-004 
 387, 1.8243e-004 
 388, 2.0849e-004 
 389, 2.3455e-004 
 390, 2.6062e-004 
 391, 2.8668e-004 
 392, 3.1274e-004 
 393, 3.3880e-004 
 394, 3.6486e-004 
 395, 3.9092e-004 
 396, 4.1698e-004 
 397, 4.4304e-004 
 398, 4.6911e-004 
 399, 4.9517e-004 
 400, 5.2123e-004 
 401, 5.4729e-004 
 402, 5.7335e-004 
 403, 5.9941e-004 
 404, 6.2548e-004 
 405, 6.5154e-004 
 406, 6.7760e-004 
 407, 7.0366e-004 
 408, 7.2972e-004 
 409, 7.5578e-004 
 410, 7.8184e-004 
 411, 7.9420e-004 
 412, 8.0656e-004 
 413, 8.1892e-004 
 414, 8.3128e-004 
 415, 8.4364e-004 
 416, 8.8931e-004 
 417, 9.3499e-004 
 418, 9.8066e-004 
 419, 1.0263e-003 
 420, 1.0720e-003 
 421, 1.2090e-003 
 422, 1.3461e-003 
 423, 1.4831e-003 
 424, 1.6201e-003 
 425, 1.7571e-003 
 426, 1.7727e-003 
 427, 1.7883e-003 
 428, 1.8039e-003 
 429, 1.8195e-003 
 430, 1.8351e-003 
 431, 1.9334e-003 
 432, 2.0317e-003 
 433, 2.1301e-003 
 434, 2.2284e-003 
 435, 2.3267e-003 
 436, 2.5331e-003 
 437, 2.7394e-003 
 438, 2.9458e-003 
 439, 3.1521e-003 
 440, 3.3584e-003 
 441, 3.4874e-003 
 442, 3.6164e-003 
 443, 3.7453e-003 
 444, 3.8743e-003 
 445, 4.0033e-003 
 446, 4.1215e-003 
 447, 4.2397e-003 
 448, 4.3579e-003 
 449, 4.4761e-003 
 450, 4.5943e-003 
 451, 4.8147e-003 
 452, 5.0350e-003 
 453, 5.2553e-003 
 454, 5.4756e-003 
 455, 5.6959e-003 
 456, 6.4751e-003 
 457, 7.2542e-003 
 458, 8.0334e-003 
 459, 8.8125e-003 
 460, 9.5917e-003 
 461, 9.6508e-003 
 462, 9.7099e-003 
 463, 9.7690e-003 
 464, 9.8281e-003 
 465, 9.8872e-003 
 466, 1.0091e-002 
 467, 1.0296e-002 
 468, 1.0500e-002 
 469, 1.0704e-002 
 470, 1.0908e-002 
 471, 1.1354e-002 
 472, 1.1800e-002 
 473, 1.2246e-002 
 474, 1.2692e-002 
 475, 1.3138e-002 
 476, 1.4331e-002 
 477, 1.5524e-002 
 478, 1.6717e-002 
 479, 1.7910e-002 
 480, 1.9103e-002 
 481, 1.9812e-002 
 482, 2.0521e-002 
 483, 2.1231e-002 
 484, 2.1940e-002 
 485, 2.2649e-002 
 486, 2.2569e-002 
 487, 2.2488e-002 
 488, 2.2408e-002 
 489, 2.2327e-002 
 490, 2.2246e-002 
 491, 2.2682e-002 
 492, 2.3117e-002 
 493, 2.3552e-002 
 494, 2.3987e-002 
 495, 2.4423e-002 
 496, 2.6094e-002 
 497, 2.7765e-002 
 498, 2.9436e-002 
 499, 3.1107e-002 
 500, 3.2778e-002 
 501, 3.4928e-002 
 502, 3.7077e-002 
 503, 3.9227e-002 
 504, 4.1376e-002 
 505, 4.3525e-002 
 506, 4.3310e-002 
 507, 4.3096e-002 
 508, 4.2881e-002 
 509, 4.2666e-002 
 510, 4.2451e-002 
 511, 4.2558e-002 
 512, 4.2666e-002 
 513, 4.2773e-002 
 514, 4.2881e-002 
 515, 4.2988e-002 
 516, 4.3955e-002 
 517, 4.4922e-002 
 518, 4.5890e-002 
 519, 4.6857e-002 
 520, 4.7824e-002 
 521, 4.9383e-002 
 522, 5.0941e-002 
 523, 5.2499e-002 
 524, 5.4057e-002 
 525, 5.5616e-002 
 526, 5.8195e-002 
 527, 6.0774e-002 
 528, 6.3354e-002 
 529, 6.5933e-002 
 530, 6.8512e-002 
 531, 6.9533e-002 
 532, 7.0554e-002 
 533, 7.1575e-002 
 534, 7.2596e-002 
 535, 7.3617e-002 
 536, 7.4369e-002 
 537, 7.5121e-002 
 538, 7.5874e-002 
 539, 7.6626e-002 
 540, 7.7378e-002 
 541, 7.8399e-002 
 542, 7.9420e-002 
 543, 8.0441e-002 
 544, 8.1462e-002 
 545, 8.2483e-002 
 546, 8.3021e-002 
 547, 8.3558e-002 
 548, 8.4095e-002 
 549, 8.4633e-002 
 550, 8.5170e-002 
 551, 8.6191e-002 
 552, 8.7212e-002 
 553, 8.8233e-002 
 554, 8.9254e-002 
 555, 9.0275e-002 
 556, 9.3069e-002 
 557, 9.5863e-002 
 558, 9.8657e-002 
 559, 1.0145e-001 
 560, 1.0425e-001 
 561, 1.0656e-001 
 562, 1.0887e-001 
 563, 1.1118e-001 
 564, 1.1349e-001 
 565, 1.1580e-001 
 566, 1.1773e-001 
 567, 1.1967e-001 
 568, 1.2160e-001 
 569, 1.2354e-001 
 570, 1.2547e-001 
 571, 1.2590e-001 
 572, 1.2633e-001 
 573, 1.2676e-001 
 574, 1.2719e-001 
 575, 1.2762e-001 
 576, 1.2655e-001 
 577, 1.2547e-001 
 578, 1.2440e-001 
 579, 1.2332e-001 
 580, 1.2225e-001 
 581, 1.2117e-001 
 582, 1.2010e-001 
 583, 1.1902e-001 
 584, 1.1795e-001 
 585, 1.1687e-001 
 586, 1.1725e-001 
 587, 1.1763e-001 
 588, 1.1800e-001 
 589, 1.1838e-001 
 590, 1.1875e-001 
 591, 1.1978e-001 
 592, 1.2080e-001 
 593, 1.2182e-001 
 594, 1.2284e-001 
 595, 1.2386e-001 
 596, 1.2536e-001 
 597, 1.2687e-001 
 598, 1.2837e-001 
 599, 1.2988e-001 
 600, 1.3138e-001 
 601, 1.3111e-001 
 602, 1.3084e-001 
 603, 1.3058e-001 
 604, 1.3031e-001 
 605, 1.3004e-001 
 606, 1.2843e-001 
 607, 1.2682e-001 
 608, 1.2520e-001 
 609, 1.2359e-001 
 610, 1.2198e-001 
 611, 1.2037e-001 
 612, 1.1875e-001 
 613, 1.1714e-001 
 614, 1.1553e-001 
 615, 1.1392e-001 
 616, 1.1209e-001 
 617, 1.1026e-001 
 618, 1.0844e-001 
 619, 1.0661e-001 
 620, 1.0478e-001 
 621, 1.0317e-001 
 622, 1.0156e-001 
 623, 9.9947e-002 
 624, 9.8335e-002 
 625, 9.6723e-002 
 626, 9.5702e-002 
 627, 9.4681e-002 
 628, 9.3660e-002 
 629, 9.2639e-002 
 630, 9.1618e-002 
 631, 9.0329e-002 
 632, 8.9039e-002 
 633, 8.7749e-002 
 634, 8.6460e-002 
 635, 8.5170e-002 
 636, 8.2859e-002 
 637, 8.0549e-002 
 638, 7.8238e-002 
 639, 7.5928e-002 
 640, 7.3617e-002 
 641, 7.2918e-002 
 642, 7.2220e-002 
 643, 7.1521e-002 
 644, 7.0823e-002 
 645, 7.0124e-002 
 646, 6.9103e-002 
 647, 6.8082e-002 
 648, 6.7061e-002 
 649, 6.6040e-002 
 650, 6.5019e-002 
 651, 6.3837e-002 
 652, 6.2655e-002 
 653, 6.1473e-002 
 654, 6.0291e-002 
 655, 5.9109e-002 
 656, 5.8141e-002 
 657, 5.7174e-002 
 658, 5.6207e-002 
 659, 5.5240e-002 
 660, 5.4272e-002 
 661, 5.3359e-002 
 662, 5.2445e-002 
 663, 5.1532e-002 
 664, 5.0618e-002 
 665, 4.9705e-002 
 666, 4.8738e-002 
 667, 4.7770e-002 
 668, 4.6803e-002 
 669, 4.5836e-002 
 670, 4.4869e-002 
 671, 4.4170e-002 
 672, 4.3472e-002 
 673, 4.2773e-002 
 674, 4.2075e-002 
 675, 4.1376e-002 
 676, 4.0731e-002 
 677, 4.0086e-002 
 678, 3.9441e-002 
 679, 3.8797e-002 
 680, 3.8152e-002 
 681, 3.7238e-002 
 682, 3.6325e-002 
 683, 3.5411e-002 
 684, 3.4498e-002 
 685, 3.3584e-002 
 686, 3.2886e-002 
 687, 3.2187e-002 
 688, 3.1489e-002 
 689, 3.0790e-002 
 690, 3.0092e-002 
 691, 2.9554e-002 
 692, 2.9017e-002 
 693, 2.8480e-002 
 694, 2.7942e-002 
 695, 2.7405e-002 
 696, 2.6867e-002 
 697, 2.6330e-002 
 698, 2.5793e-002 
 699, 2.5256e-002 
 700, 2.4718e-002 
 701, 2.4288e-002 
 702, 2.3858e-002 
 703, 2.3429e-002 
 704, 2.2999e-002 
 705, 2.2569e-002 
 706, 2.2193e-002 
 707, 2.1816e-002 
 708, 2.1440e-002 
 709, 2.1064e-002 
 710, 2.0688e-002 
 711, 2.0258e-002 
 712, 1.9828e-002 
 713, 1.9398e-002 
 714, 1.8968e-002 
 715, 1.8539e-002 
 716, 1.8216e-002 
 717, 1.7894e-002 
 718, 1.7571e-002 
 719, 1.7249e-002 
 720, 1.6927e-002 
 721, 1.6604e-002 
 722, 1.6282e-002 
 723, 1.5959e-002 
 724, 1.5637e-002 
 725, 1.5315e-002 
 726, 1.5073e-002 
 727, 1.4831e-002 
 728, 1.4589e-002 
 729, 1.4347e-002 
 730, 1.4105e-002 
 731, 1.3837e-002 
 732, 1.3568e-002 
 733, 1.3299e-002 
 734, 1.3031e-002 
 735, 1.2762e-002 
 736, 1.2612e-002 
 737, 1.2461e-002 
 738, 1.2311e-002 
 739, 1.2160e-002 
 740, 1.2010e-002 
 741, 1.1865e-002 
 742, 1.1720e-002 
 743, 1.1575e-002 
 744, 1.1429e-002 
 745, 1.1284e-002 
 746, 1.1043e-002 
 747, 1.0801e-002 
 748, 1.0559e-002 
 749, 1.0317e-002 
 750, 1.0075e-002 
 751, 9.8066e-003 
 752, 9.5380e-003 
 753, 9.2693e-003 
 754, 9.0006e-003 
 755, 8.7319e-003 
 756, 8.5546e-003 
 757, 8.3773e-003 
 758, 8.2000e-003 
 759, 8.0226e-003 
 760, 7.8453e-003 
 761, 7.7593e-003 
 762, 7.6734e-003 
 763, 7.5874e-003 
 764, 7.5014e-003 
 765, 7.4154e-003 
 766, 7.3832e-003 
 767, 7.3510e-003 
 768, 7.3187e-003 
 769, 7.2865e-003 
 770, 7.2542e-003 
 771, 7.3080e-003 
 772, 7.3617e-003 
 773, 7.4154e-003 
 774, 7.4692e-003 
 775, 7.5229e-003 
 776, 7.5498e-003 
 777, 7.5766e-003 
 778, 7.6035e-003 
 779, 7.6304e-003 
 780, 7.6572e-003 
 781, 7.4799e-003 
 782, 7.3026e-003 
 783, 7.1253e-003 
 784, 6.9479e-003 
 785, 6.7706e-003 
 786, 6.5987e-003 
 787, 6.4267e-003 
 788, 6.2547e-003 
 789, 6.0828e-003 
 790, 5.9108e-003 
 791, 5.7067e-003 
 792, 5.5025e-003 
 793, 5.2983e-003 
 794, 5.0941e-003 
 795, 4.8899e-003 
 796, 4.7878e-003 
 797, 4.6857e-003 
 798, 4.5836e-003 
 799, 4.4815e-003 
 800, 4.3794e-003 
 801, 4.4439e-003 
 802, 4.5084e-003 
 803, 4.5728e-003 
 804, 4.6373e-003 
 805, 4.7018e-003 
 806, 4.7824e-003 
 807, 4.8630e-003 
 808, 4.9436e-003 
 809, 5.0242e-003 
 810, 5.1048e-003 
 811, 5.0780e-003 
 812, 5.0511e-003 
 813, 5.0242e-003 
 814, 4.9974e-003 
 815, 4.9705e-003 
 816, 4.8899e-003 
 817, 4.8093e-003 
 818, 4.7287e-003 
 819, 4.6481e-003 
 820, 4.5675e-003 
 821, 4.4707e-003 
 822, 4.3740e-003 
 823, 4.2773e-003 
 824, 4.1806e-003 
 825, 4.0839e-003 
 826, 4.0301e-003 
 827, 3.9764e-003 
 828, 3.9227e-003 
 829, 3.8689e-003 
 830, 3.8152e-003 
 831, 3.8044e-003 
 832, 3.7937e-003 
 833, 3.7829e-003 
 834, 3.7722e-003 
 835, 3.7614e-003 
 836, 3.7614e-003 
 837, 3.7614e-003 
 838, 3.7614e-003 
 839, 3.7614e-003 
 840, 3.7614e-003 
 841, 3.7722e-003 
 842, 3.7829e-003 
 843, 3.7937e-003 
 844, 3.8044e-003 
 845, 3.8152e-003 
 846, 3.8313e-003 
 847, 3.8474e-003 
 848, 3.8635e-003 
 849, 3.8797e-003 
 850, 3.8958e-003 
 851, 3.8179e-003 
 852, 3.7400e-003 
 853, 3.6620e-003 
 854, 3.5841e-003 
 855, 3.5062e-003 
 856, 3.4283e-003 
 857, 3.3504e-003 
 858, 3.2725e-003 
 859, 3.1946e-003 
 860, 3.1166e-003 
 861, 3.0387e-003 
 862, 2.9608e-003 
 863, 2.8829e-003 
 864, 2.8050e-003 
 865, 2.7271e-003 
 866, 2.6491e-003 
 867, 2.5712e-003 
 868, 2.4933e-003 
 869, 2.4154e-003 
 870, 2.3375e-003 
 871, 2.2596e-003 
 872, 2.1816e-003 
 873, 2.1037e-003 
 874, 2.0258e-003 
 875, 1.9479e-003 
 876, 1.8700e-003 
 877, 1.7921e-003 
 878, 1.7142e-003 
 879, 1.6362e-003 
 880, 1.5583e-003 
 881, 1.4804e-003 
 882, 1.4025e-003 
 883, 1.3246e-003 
 884, 1.2467e-003 
 885, 1.1687e-003 
 886, 1.0908e-003 
 887, 1.0129e-003 
 888, 9.3499e-004 
 889, 8.5707e-004 
 890, 7.7916e-004 
 891, 7.0124e-004 
 892, 6.2333e-004 
 893, 5.4541e-004 
 894, 4.6750e-004 
 895, 3.8958e-004 
 896, 3.1166e-004 
 897, 2.3375e-004 
 898, 1.5583e-004 
 899, 7.7916e-005 
 900, 0.0000e+000 